Wavelength nm.	RawData ...	RawData ...	RawData ...	RawData ...
190.00	0.027	0.304	0.322	0.420
191.00	0.023	0.283	0.300	0.402
192.00	0.022	0.262	0.277	0.381
193.00	0.021	0.238	0.253	0.360
194.00	0.019	0.219	0.234	0.343
195.00	0.019	0.202	0.216	0.327
196.00	0.019	0.187	0.201	0.311
197.00	0.018	0.174	0.187	0.297
198.00	0.017	0.162	0.175	0.283
199.00	0.017	0.152	0.165	0.269
200.00	0.018	0.144	0.156	0.257
201.00	0.017	0.135	0.147	0.245
202.00	0.016	0.128	0.139	0.235
203.00	0.016	0.122	0.132	0.227
204.00	0.016	0.116	0.127	0.219
205.00	0.015	0.111	0.121	0.212
206.00	0.015	0.107	0.116	0.206
207.00	0.015	0.103	0.112	0.199
208.00	0.014	0.099	0.108	0.193
209.00	0.014	0.096	0.104	0.187
210.00	0.013	0.093	0.100	0.182
211.00	0.013	0.090	0.097	0.176
212.00	0.013	0.087	0.094	0.170
213.00	0.013	0.084	0.090	0.164
214.00	0.013	0.082	0.088	0.158
215.00	0.012	0.080	0.085	0.153
216.00	0.012	0.078	0.083	0.147
217.00	0.012	0.076	0.080	0.142
218.00	0.012	0.074	0.079	0.137
219.00	0.012	0.072	0.077	0.133
220.00	0.012	0.071	0.075	0.128
221.00	0.012	0.069	0.073	0.124
222.00	0.012	0.068	0.072	0.120
223.00	0.012	0.066	0.070	0.116
224.00	0.012	0.065	0.069	0.112
225.00	0.012	0.064	0.067	0.108
226.00	0.012	0.063	0.066	0.105
227.00	0.011	0.061	0.065	0.102
228.00	0.012	0.060	0.064	0.099
229.00	0.012	0.059	0.063	0.096
230.00	0.012	0.058	0.062	0.093
231.00	0.012	0.057	0.061	0.090
232.00	0.011	0.056	0.059	0.087
233.00	0.011	0.055	0.059	0.085
234.00	0.011	0.055	0.058	0.082
235.00	0.011	0.054	0.057	0.080
236.00	0.011	0.053	0.056	0.078
237.00	0.011	0.052	0.055	0.076
238.00	0.011	0.051	0.054	0.075
239.00	0.011	0.051	0.054	0.074
240.00	0.011	0.050	0.053	0.072
241.00	0.011	0.049	0.052	0.071
242.00	0.011	0.049	0.052	0.070
243.00	0.010	0.048	0.051	0.069
244.00	0.010	0.047	0.050	0.068
245.00	0.010	0.047	0.050	0.067
246.00	0.010	0.047	0.049	0.066
247.00	0.010	0.046	0.049	0.065
248.00	0.010	0.046	0.048	0.065
249.00	0.010	0.045	0.048	0.064
250.00	0.009	0.045	0.047	0.063
251.00	0.009	0.045	0.047	0.063
252.00	0.009	0.044	0.046	0.062
253.00	0.009	0.044	0.046	0.061
254.00	0.009	0.043	0.046	0.061
255.00	0.009	0.043	0.045	0.060
256.00	0.009	0.042	0.045	0.059
257.00	0.009	0.042	0.044	0.059
258.00	0.009	0.042	0.044	0.058
259.00	0.009	0.041	0.044	0.058
260.00	0.008	0.041	0.043	0.057
261.00	0.008	0.041	0.043	0.057
262.00	0.008	0.040	0.043	0.056
263.00	0.008	0.040	0.042	0.056
264.00	0.008	0.039	0.042	0.055
265.00	0.008	0.039	0.041	0.055
266.00	0.008	0.038	0.041	0.054
267.00	0.008	0.038	0.040	0.053
268.00	0.008	0.038	0.040	0.053
269.00	0.008	0.037	0.039	0.052
270.00	0.008	0.036	0.039	0.051
271.00	0.008	0.036	0.038	0.051
272.00	0.008	0.035	0.037	0.050
273.00	0.008	0.034	0.037	0.049
274.00	0.008	0.034	0.036	0.049
275.00	0.008	0.033	0.035	0.048
276.00	0.008	0.033	0.035	0.048
277.00	0.008	0.032	0.034	0.047
278.00	0.008	0.031	0.034	0.046
279.00	0.007	0.030	0.033	0.045
280.00	0.007	0.030	0.032	0.045
281.00	0.008	0.029	0.032	0.044
282.00	0.008	0.029	0.031	0.043
283.00	0.007	0.028	0.030	0.043
284.00	0.007	0.027	0.030	0.042
285.00	0.007	0.027	0.029	0.041
286.00	0.007	0.026	0.028	0.041
287.00	0.007	0.026	0.028	0.040
288.00	0.007	0.025	0.027	0.039
289.00	0.007	0.024	0.026	0.038
290.00	0.007	0.024	0.026	0.038
291.00	0.007	0.023	0.025	0.037
292.00	0.007	0.022	0.024	0.036
293.00	0.007	0.022	0.024	0.036
294.00	0.007	0.022	0.023	0.035
295.00	0.007	0.021	0.023	0.035
296.00	0.007	0.020	0.023	0.034
297.00	0.007	0.020	0.022	0.033
298.00	0.007	0.020	0.022	0.033
299.00	0.007	0.019	0.021	0.032
300.00	0.007	0.019	0.021	0.032
301.00	0.007	0.018	0.020	0.031
302.00	0.007	0.018	0.020	0.031
303.00	0.006	0.018	0.019	0.030
304.00	0.007	0.017	0.019	0.030
305.00	0.006	0.017	0.019	0.029
306.00	0.006	0.016	0.018	0.029
307.00	0.006	0.016	0.018	0.028
308.00	0.006	0.016	0.017	0.028
309.00	0.006	0.016	0.017	0.028
310.00	0.006	0.015	0.017	0.027
311.00	0.006	0.015	0.017	0.027
312.00	0.006	0.015	0.016	0.027
313.00	0.006	0.015	0.016	0.026
314.00	0.006	0.014	0.016	0.025
315.00	0.006	0.014	0.015	0.025
316.00	0.006	0.014	0.015	0.025
317.00	0.006	0.014	0.015	0.025
318.00	0.006	0.014	0.015	0.025
319.00	0.006	0.013	0.014	0.024
320.00	0.006	0.013	0.014	0.024
321.00	0.006	0.013	0.014	0.023
322.00	0.006	0.012	0.014	0.023
323.00	0.006	0.012	0.014	0.023
324.00	0.006	0.012	0.013	0.023
325.00	0.005	0.012	0.013	0.022
326.00	0.005	0.012	0.012	0.021
327.00	0.005	0.011	0.012	0.021
328.00	0.005	0.011	0.012	0.021
329.00	0.005	0.011	0.012	0.021
330.00	0.005	0.011	0.012	0.021
331.00	0.005	0.011	0.012	0.020
332.00	0.005	0.011	0.011	0.020
333.00	0.005	0.010	0.011	0.020
334.00	0.005	0.010	0.011	0.019
335.00	0.005	0.010	0.011	0.019
336.00	0.005	0.010	0.011	0.019
337.00	0.005	0.010	0.011	0.019
338.00	0.005	0.010	0.011	0.019
339.00	0.005	0.010	0.011	0.019
340.00	0.006	0.011	0.012	0.019
341.00	0.005	0.010	0.010	0.018
342.00	0.005	0.009	0.010	0.018
343.00	0.005	0.009	0.010	0.018
344.00	0.005	0.009	0.010	0.018
345.00	0.005	0.009	0.010	0.018
346.00	0.005	0.009	0.009	0.017
347.00	0.005	0.009	0.009	0.017
348.00	0.005	0.008	0.009	0.017
349.00	0.005	0.008	0.009	0.017
350.00	0.004	0.008	0.009	0.016
351.00	0.004	0.008	0.008	0.016
352.00	0.004	0.008	0.008	0.016
353.00	0.004	0.008	0.008	0.016
354.00	0.004	0.007	0.008	0.016
355.00	0.004	0.007	0.008	0.015
356.00	0.004	0.007	0.008	0.015
357.00	0.004	0.007	0.008	0.015
358.00	0.004	0.007	0.008	0.015
359.00	0.004	0.007	0.007	0.015
360.00	0.004	0.007	0.007	0.014
361.00	0.004	0.007	0.007	0.014
362.00	0.004	0.006	0.007	0.014
363.00	0.004	0.006	0.007	0.013
364.00	0.004	0.006	0.007	0.014
365.00	0.004	0.006	0.007	0.014
366.00	0.004	0.006	0.007	0.013
367.00	0.004	0.007	0.007	0.013
368.00	0.004	0.006	0.006	0.013
369.00	0.003	0.006	0.006	0.013
370.00	0.003	0.006	0.006	0.013
371.00	0.003	0.005	0.006	0.012
372.00	0.003	0.006	0.006	0.012
373.00	0.003	0.005	0.006	0.012
374.00	0.003	0.005	0.006	0.012
375.00	0.003	0.005	0.006	0.012
376.00	0.003	0.005	0.006	0.012
377.00	0.003	0.005	0.005	0.012
378.00	0.003	0.005	0.005	0.011
379.00	0.003	0.005	0.005	0.011
380.00	0.003	0.005	0.005	0.011
381.00	0.003	0.005	0.005	0.011
382.00	0.003	0.005	0.005	0.011
383.00	0.003	0.004	0.005	0.011
384.00	0.003	0.004	0.005	0.011
385.00	0.003	0.004	0.005	0.010
386.00	0.003	0.004	0.005	0.010
387.00	0.003	0.004	0.005	0.010
388.00	0.003	0.004	0.005	0.010
389.00	0.002	0.004	0.004	0.010
390.00	0.003	0.004	0.004	0.010
391.00	0.003	0.004	0.004	0.010
392.00	0.002	0.004	0.004	0.010
393.00	0.002	0.004	0.004	0.009
394.00	0.002	0.004	0.004	0.009
395.00	0.002	0.004	0.004	0.009
396.00	0.002	0.004	0.004	0.009
397.00	0.002	0.004	0.004	0.009
398.00	0.002	0.004	0.004	0.009
399.00	0.002	0.003	0.004	0.009
400.00	0.002	0.003	0.004	0.009
401.00	0.002	0.003	0.004	0.009
402.00	0.002	0.003	0.004	0.008
403.00	0.002	0.003	0.004	0.008
404.00	0.002	0.003	0.004	0.008
405.00	0.002	0.003	0.003	0.008
406.00	0.002	0.003	0.003	0.008
407.00	0.002	0.003	0.003	0.008
408.00	0.002	0.003	0.003	0.008
409.00	0.002	0.003	0.003	0.008
410.00	0.002	0.003	0.003	0.008
411.00	0.002	0.003	0.003	0.008
412.00	0.002	0.003	0.003	0.008
413.00	0.002	0.003	0.003	0.007
414.00	0.002	0.003	0.003	0.007
415.00	0.002	0.003	0.003	0.007
416.00	0.002	0.003	0.003	0.007
417.00	0.002	0.003	0.003	0.007
418.00	0.002	0.003	0.003	0.007
419.00	0.002	0.003	0.003	0.007
420.00	0.001	0.003	0.003	0.007
421.00	0.001	0.003	0.003	0.007
422.00	0.001	0.002	0.003	0.007
423.00	0.002	0.002	0.003	0.007
424.00	0.001	0.002	0.003	0.007
425.00	0.001	0.002	0.003	0.007
426.00	0.001	0.002	0.003	0.006
427.00	0.001	0.002	0.003	0.006
428.00	0.001	0.002	0.003	0.006
429.00	0.001	0.002	0.003	0.006
430.00	0.001	0.002	0.003	0.006
431.00	0.001	0.002	0.003	0.006
432.00	0.001	0.002	0.003	0.006
433.00	0.001	0.002	0.003	0.006
434.00	0.001	0.002	0.003	0.006
435.00	0.001	0.002	0.002	0.006
436.00	0.001	0.002	0.002	0.006
437.00	0.001	0.002	0.002	0.006
438.00	0.001	0.002	0.002	0.006
439.00	0.001	0.002	0.002	0.006
440.00	0.001	0.002	0.002	0.006
441.00	0.001	0.002	0.002	0.006
442.00	0.001	0.002	0.002	0.006
443.00	0.001	0.002	0.002	0.006
444.00	0.001	0.002	0.002	0.006
445.00	0.001	0.002	0.002	0.005
446.00	0.001	0.002	0.002	0.005
447.00	0.001	0.002	0.002	0.005
448.00	0.001	0.002	0.002	0.005
449.00	0.001	0.002	0.002	0.005
450.00	0.001	0.002	0.002	0.005
451.00	0.001	0.002	0.002	0.005
452.00	0.001	0.002	0.002	0.005
453.00	0.001	0.002	0.002	0.005
454.00	0.001	0.002	0.002	0.005
455.00	0.001	0.002	0.002	0.005
456.00	0.001	0.001	0.002	0.005
457.00	0.001	0.001	0.002	0.005
458.00	0.001	0.001	0.002	0.005
459.00	0.001	0.001	0.002	0.005
460.00	0.001	0.001	0.002	0.005
461.00	0.001	0.001	0.002	0.005
462.00	0.001	0.001	0.002	0.005
463.00	0.001	0.001	0.002	0.005
464.00	0.001	0.001	0.002	0.005
465.00	0.001	0.001	0.002	0.005
466.00	0.001	0.001	0.002	0.005
467.00	0.001	0.001	0.002	0.004
468.00	0.001	0.001	0.002	0.004
469.00	0.001	0.001	0.001	0.004
470.00	0.001	0.001	0.001	0.004
471.00	0.001	0.001	0.001	0.004
472.00	0.001	0.001	0.001	0.004
473.00	0.001	0.001	0.001	0.004
474.00	0.001	0.001	0.001	0.004
475.00	0.001	0.001	0.001	0.004
476.00	0.001	0.001	0.001	0.004
477.00	0.001	0.001	0.001	0.004
478.00	0.001	0.001	0.001	0.004
479.00	0.001	0.001	0.001	0.004
480.00	0.001	0.001	0.001	0.004
481.00	0.001	0.001	0.001	0.004
482.00	0.001	0.001	0.001	0.004
483.00	0.001	0.001	0.001	0.004
484.00	0.000	0.001	0.001	0.004
485.00	0.000	0.001	0.001	0.004
486.00	0.000	0.001	0.001	0.004
487.00	0.000	0.001	0.001	0.004
488.00	0.000	0.001	0.001	0.004
489.00	0.000	0.001	0.001	0.004
490.00	0.000	0.001	0.001	0.004
491.00	0.000	0.001	0.001	0.004
492.00	0.000	0.001	0.001	0.004
493.00	0.000	0.001	0.001	0.004
494.00	0.000	0.001	0.001	0.004
495.00	0.001	0.001	0.001	0.004
496.00	0.001	0.001	0.001	0.004
497.00	0.000	0.001	0.001	0.004
498.00	0.000	0.001	0.001	0.004
499.00	0.000	0.001	0.001	0.004
500.00	0.000	0.001	0.001	0.004
501.00	0.000	0.001	0.001	0.004
502.00	0.000	0.001	0.001	0.004
503.00	0.000	0.001	0.001	0.004
504.00	0.001	0.001	0.001	0.004
505.00	0.001	0.001	0.001	0.004
506.00	0.000	0.001	0.001	0.004
507.00	0.000	0.001	0.001	0.003
508.00	0.000	0.001	0.001	0.004
509.00	0.000	0.001	0.001	0.003
510.00	0.000	0.000	0.001	0.003
511.00	0.000	0.001	0.001	0.003
512.00	0.000	0.001	0.001	0.003
513.00	0.000	0.001	0.001	0.003
514.00	0.000	0.000	0.001	0.003
515.00	0.000	0.001	0.001	0.003
516.00	0.000	0.001	0.001	0.003
517.00	0.000	0.001	0.001	0.003
518.00	0.000	0.000	0.001	0.003
519.00	0.000	0.000	0.001	0.003
520.00	0.000	0.001	0.001	0.003
521.00	0.000	0.000	0.001	0.003
522.00	0.000	0.000	0.001	0.003
523.00	0.000	0.000	0.001	0.003
524.00	0.000	0.000	0.001	0.003
525.00	0.000	0.000	0.001	0.003
526.00	0.000	0.000	0.001	0.003
527.00	0.000	0.000	0.001	0.003
528.00	0.000	0.000	0.001	0.003
529.00	0.000	0.000	0.001	0.003
530.00	0.000	0.000	0.001	0.003
531.00	0.000	0.000	0.001	0.003
532.00	0.000	0.000	0.001	0.003
533.00	0.000	0.000	0.001	0.003
534.00	0.000	0.000	0.001	0.003
535.00	0.000	0.001	0.001	0.003
536.00	0.001	0.001	0.002	0.004
537.00	0.000	0.001	0.001	0.003
538.00	0.000	0.000	0.001	0.003
539.00	0.000	0.000	0.001	0.003
540.00	0.000	0.000	0.001	0.003
541.00	0.000	0.000	0.001	0.003
542.00	0.000	0.000	0.001	0.003
543.00	0.000	0.000	0.001	0.003
544.00	0.000	0.000	0.001	0.003
545.00	0.000	0.000	0.001	0.003
546.00	0.000	0.000	0.001	0.003
547.00	0.000	0.000	0.001	0.003
548.00	0.000	0.000	0.001	0.003
549.00	0.000	0.000	0.001	0.003
550.00	0.000	0.000	0.001	0.003
551.00	0.000	0.000	0.001	0.003
552.00	0.000	0.000	0.001	0.003
553.00	0.000	0.000	0.001	0.003
554.00	0.000	0.000	0.001	0.003
555.00	0.000	0.000	0.001	0.003
556.00	0.000	0.000	0.001	0.003
557.00	0.000	0.000	0.001	0.003
558.00	0.000	0.000	0.001	0.003
559.00	0.000	0.000	0.001	0.003
560.00	0.000	0.000	0.001	0.003
561.00	0.000	0.000	0.001	0.003
562.00	0.000	0.000	0.001	0.003
563.00	0.000	0.000	0.001	0.003
564.00	0.000	0.000	0.001	0.003
565.00	0.000	0.000	0.001	0.003
566.00	0.000	0.000	0.001	0.003
567.00	0.000	0.000	0.001	0.003
568.00	0.000	0.000	0.001	0.003
569.00	0.000	0.000	0.001	0.003
570.00	0.000	0.000	0.001	0.003
571.00	0.000	0.000	0.001	0.003
572.00	-0.000	0.000	0.001	0.003
573.00	-0.000	0.000	0.001	0.003
574.00	-0.000	0.000	0.001	0.003
575.00	0.000	0.000	0.001	0.003
576.00	0.000	0.000	0.001	0.003
577.00	0.000	0.000	0.001	0.003
578.00	-0.000	0.000	0.001	0.003
579.00	0.000	0.000	0.001	0.003
580.00	0.000	0.000	0.001	0.003
581.00	-0.000	0.000	0.001	0.002
582.00	0.000	0.000	0.001	0.002
583.00	0.000	0.000	0.001	0.003
584.00	0.000	0.000	0.001	0.003
585.00	0.000	0.000	0.001	0.003
586.00	0.000	0.000	0.001	0.002
587.00	0.000	0.000	0.001	0.003
588.00	0.000	0.000	0.001	0.003
589.00	0.000	0.000	0.001	0.003
590.00	0.000	0.000	0.001	0.003
591.00	0.000	0.000	0.001	0.003
592.00	0.000	0.000	0.001	0.002
593.00	-0.000	0.000	0.001	0.002
594.00	-0.000	0.000	0.001	0.002
595.00	0.000	0.000	0.001	0.003
596.00	0.000	0.000	0.001	0.003
597.00	0.000	0.000	0.001	0.003
598.00	0.000	0.000	0.001	0.002
599.00	-0.000	0.000	0.001	0.002
600.00	0.000	0.000	0.001	0.002
601.00	0.000	0.000	0.001	0.002
602.00	0.000	0.000	0.001	0.002
603.00	0.000	0.000	0.001	0.002
604.00	-0.000	0.000	0.001	0.002
605.00	-0.000	0.000	0.001	0.002
606.00	-0.000	0.000	0.001	0.002
607.00	0.000	0.000	0.001	0.002
608.00	-0.000	0.000	0.001	0.002
609.00	-0.000	0.000	0.001	0.002
610.00	-0.000	0.000	0.001	0.002
611.00	0.000	0.000	0.001	0.002
612.00	0.000	0.000	0.001	0.002
613.00	0.000	0.000	0.001	0.002
614.00	-0.000	0.000	0.001	0.002
615.00	-0.000	0.000	0.001	0.002
616.00	-0.000	0.000	0.001	0.002
617.00	0.000	0.000	0.001	0.002
618.00	-0.000	0.000	0.001	0.002
619.00	-0.000	0.000	0.001	0.002
620.00	0.000	0.000	0.001	0.002
621.00	-0.000	0.000	0.001	0.002
622.00	-0.000	0.000	0.001	0.002
623.00	-0.000	0.000	0.001	0.002
624.00	-0.000	0.000	0.001	0.002
625.00	-0.000	0.000	0.001	0.002
626.00	-0.000	0.000	0.001	0.002
627.00	-0.000	0.000	0.001	0.002
628.00	0.000	0.000	0.001	0.002
629.00	0.000	0.000	0.001	0.002
630.00	-0.000	0.000	0.001	0.002
631.00	-0.000	0.000	0.001	0.002
632.00	-0.000	0.000	0.001	0.002
633.00	-0.000	0.000	0.001	0.002
634.00	-0.000	0.000	0.001	0.002
635.00	-0.000	0.000	0.001	0.002
636.00	-0.000	0.000	0.001	0.002
637.00	-0.000	0.000	0.000	0.002
638.00	-0.000	0.000	0.000	0.002
639.00	-0.000	0.000	0.000	0.002
640.00	-0.000	0.000	0.000	0.002
641.00	-0.000	0.000	0.000	0.002
642.00	-0.000	0.000	0.001	0.002
643.00	-0.000	0.000	0.001	0.002
644.00	-0.000	0.000	0.001	0.002
645.00	-0.000	0.000	0.000	0.002
646.00	-0.000	0.000	0.000	0.002
647.00	-0.000	0.000	0.000	0.002
648.00	-0.000	0.000	0.001	0.002
649.00	-0.000	0.000	0.001	0.002
650.00	-0.000	0.000	0.001	0.002
651.00	-0.000	0.000	0.000	0.002
652.00	-0.000	0.000	0.000	0.002
653.00	-0.000	0.000	0.000	0.002
654.00	-0.000	0.000	0.000	0.002
655.00	-0.000	0.000	0.000	0.002
656.00	-0.000	0.000	0.000	0.002
657.00	-0.000	0.000	0.000	0.002
658.00	-0.000	0.000	0.000	0.002
659.00	-0.000	0.000	0.000	0.002
660.00	-0.000	0.000	0.000	0.002
661.00	-0.000	0.000	0.000	0.002
662.00	-0.000	0.000	0.000	0.002
663.00	0.000	0.000	0.000	0.002
664.00	-0.000	0.000	0.001	0.002
665.00	-0.000	0.000	0.000	0.002
666.00	-0.000	0.000	0.000	0.002
667.00	-0.000	0.000	0.000	0.002
668.00	0.000	0.000	0.000	0.002
669.00	-0.000	0.000	0.000	0.002
670.00	-0.000	0.000	0.000	0.002
671.00	-0.000	0.000	0.000	0.002
672.00	0.000	0.000	0.000	0.002
673.00	-0.000	0.000	0.000	0.002
674.00	-0.000	0.000	0.000	0.002
675.00	-0.000	0.000	0.000	0.002
676.00	0.000	0.000	0.000	0.002
677.00	-0.000	0.000	0.000	0.002
678.00	-0.000	0.000	0.000	0.002
679.00	-0.000	0.000	0.000	0.002
680.00	-0.000	0.000	0.000	0.002
681.00	-0.000	0.000	0.000	0.002
682.00	-0.000	0.000	0.000	0.002
683.00	-0.000	0.000	0.000	0.002
684.00	-0.000	0.000	0.000	0.002
685.00	0.000	0.000	0.000	0.002
686.00	-0.000	0.000	0.000	0.002
687.00	-0.000	0.000	0.000	0.002
688.00	0.000	0.000	0.000	0.002
689.00	0.000	0.000	0.000	0.002
690.00	-0.000	0.000	0.000	0.002
691.00	-0.000	0.000	0.000	0.002
692.00	-0.000	0.000	0.000	0.002
693.00	-0.000	0.000	0.000	0.002
694.00	-0.000	0.000	0.000	0.002
695.00	-0.000	0.000	0.000	0.002
696.00	-0.000	0.000	0.000	0.002
697.00	-0.000	-0.000	0.000	0.002
698.00	-0.000	-0.000	0.000	0.002
699.00	-0.000	0.000	0.000	0.002
700.00	-0.000	0.000	0.000	0.002
701.00	-0.000	0.000	0.000	0.002
702.00	-0.000	0.000	0.000	0.002
703.00	-0.000	0.000	0.000	0.002
704.00	-0.000	0.000	0.000	0.002
705.00	-0.000	0.000	0.000	0.002
706.00	-0.000	0.000	0.000	0.002
707.00	-0.000	0.000	0.000	0.002
708.00	-0.000	0.000	0.000	0.002
709.00	-0.000	0.000	0.000	0.002
710.00	-0.000	0.000	0.000	0.002
711.00	-0.000	0.000	0.000	0.002
712.00	-0.000	0.000	0.000	0.002
713.00	-0.000	0.000	0.000	0.002
714.00	-0.000	0.000	0.000	0.002
715.00	-0.000	0.000	0.000	0.002
716.00	-0.000	-0.000	0.000	0.002
717.00	0.000	-0.000	0.000	0.002
718.00	0.000	0.000	0.000	0.002
719.00	0.000	0.000	0.000	0.002
720.00	-0.000	-0.000	0.000	0.002
721.00	0.000	0.000	0.000	0.002
722.00	-0.000	0.000	0.000	0.002
723.00	0.000	0.000	0.000	0.002
724.00	-0.000	-0.000	0.000	0.002
725.00	-0.000	-0.000	0.000	0.002
726.00	-0.000	-0.000	0.000	0.002
727.00	0.000	-0.000	0.000	0.002
728.00	-0.000	-0.000	0.000	0.002
729.00	-0.000	-0.000	0.000	0.002
730.00	-0.000	-0.000	0.000	0.002
731.00	-0.000	-0.000	0.000	0.002
732.00	-0.000	-0.000	-0.000	0.002
733.00	0.000	-0.000	-0.000	0.002
734.00	0.000	-0.000	0.000	0.002
735.00	0.000	-0.000	0.000	0.002
736.00	0.000	-0.000	-0.000	0.002
737.00	0.000	-0.000	-0.000	0.002
738.00	0.000	-0.000	-0.000	0.002
739.00	-0.000	-0.000	-0.000	0.001
740.00	0.000	-0.000	-0.000	0.001
741.00	-0.000	-0.000	-0.000	0.001
742.00	0.000	-0.000	-0.000	0.002
743.00	0.000	-0.000	-0.000	0.002
744.00	0.000	-0.000	0.000	0.002
745.00	0.000	-0.000	0.000	0.002
746.00	0.000	-0.000	0.000	0.002
747.00	0.000	-0.000	0.000	0.002
748.00	-0.000	-0.000	0.000	0.002
749.00	-0.000	-0.000	-0.000	0.002
750.00	-0.000	-0.000	-0.000	0.002
751.00	0.000	-0.000	-0.000	0.002
752.00	-0.000	-0.000	-0.000	0.002
753.00	-0.000	-0.000	-0.000	0.002
754.00	-0.000	-0.000	-0.000	0.002
755.00	-0.000	-0.000	-0.000	0.002
756.00	-0.000	-0.000	-0.000	0.001
757.00	-0.000	-0.000	-0.000	0.001
758.00	-0.000	-0.000	-0.000	0.002
759.00	0.000	0.000	0.000	0.002
760.00	0.001	0.001	0.001	0.003
761.00	-0.000	0.000	0.000	0.002
762.00	-0.000	-0.000	0.000	0.002
763.00	-0.000	-0.000	0.000	0.002
764.00	-0.000	-0.000	0.000	0.002
765.00	-0.000	-0.000	0.000	0.002
766.00	-0.000	0.000	0.000	0.002
767.00	-0.000	-0.000	0.000	0.002
768.00	-0.000	-0.000	0.000	0.002
769.00	-0.000	-0.000	0.000	0.002
770.00	-0.000	-0.000	0.000	0.002
771.00	-0.000	-0.000	0.000	0.002
772.00	-0.000	-0.000	0.000	0.002
773.00	-0.000	-0.000	0.000	0.002
774.00	-0.000	-0.000	0.000	0.002
775.00	-0.000	-0.000	0.000	0.002
776.00	-0.000	-0.000	0.000	0.002
777.00	-0.000	-0.000	0.000	0.002
778.00	-0.000	-0.000	0.000	0.002
779.00	-0.000	-0.000	0.000	0.002
780.00	-0.000	-0.000	0.000	0.002
781.00	-0.000	-0.000	0.000	0.002
782.00	-0.000	-0.000	0.000	0.002
783.00	-0.000	-0.000	0.000	0.002
784.00	-0.000	-0.000	0.000	0.002
785.00	-0.000	-0.000	0.000	0.002
786.00	-0.000	-0.000	0.000	0.002
787.00	-0.000	0.000	0.000	0.002
788.00	-0.000	0.000	0.000	0.002
789.00	-0.000	0.000	0.000	0.002
790.00	-0.000	0.000	0.000	0.002
791.00	-0.000	0.000	0.000	0.002
792.00	-0.000	-0.000	0.000	0.002
793.00	-0.000	-0.000	0.000	0.002
794.00	-0.000	0.000	0.000	0.002
795.00	-0.000	0.000	0.000	0.002
796.00	-0.000	0.000	0.000	0.002
797.00	-0.000	0.000	0.000	0.002
798.00	-0.000	0.000	0.000	0.002
799.00	-0.000	-0.000	0.000	0.002
800.00	-0.000	0.000	0.000	0.002
801.00	-0.000	-0.000	0.000	0.002
802.00	-0.000	0.000	0.000	0.002
803.00	-0.000	0.000	0.000	0.002
804.00	-0.000	0.000	0.000	0.002
805.00	-0.000	0.000	0.000	0.002
806.00	-0.000	0.000	0.000	0.002
807.00	-0.000	0.000	0.000	0.002
808.00	-0.000	0.000	0.000	0.002
809.00	-0.000	0.000	0.000	0.002
810.00	-0.000	0.000	0.000	0.002
811.00	-0.000	0.000	0.000	0.002
812.00	-0.000	-0.000	0.000	0.002
813.00	-0.000	-0.000	0.000	0.002
814.00	-0.000	-0.000	0.000	0.002
815.00	-0.000	0.000	0.000	0.002
816.00	0.000	0.000	0.000	0.002
817.00	-0.000	0.000	0.000	0.002
818.00	-0.000	-0.000	0.000	0.002
819.00	-0.000	-0.000	0.000	0.002
820.00	-0.000	-0.000	0.000	0.002
821.00	-0.000	0.000	0.000	0.002
822.00	-0.000	0.000	0.000	0.002
823.00	-0.000	-0.000	0.000	0.002
824.00	-0.000	-0.000	0.000	0.002
825.00	-0.000	0.000	0.000	0.002
826.00	-0.000	0.000	0.000	0.002
827.00	-0.000	0.000	0.000	0.002
828.00	-0.000	0.000	0.000	0.002
829.00	-0.000	-0.000	0.000	0.002
830.00	-0.000	-0.000	0.000	0.002
831.00	-0.000	-0.000	0.000	0.002
832.00	-0.000	-0.000	0.000	0.002
833.00	0.000	-0.000	0.000	0.002
834.00	0.000	-0.000	0.000	0.002
835.00	0.000	-0.000	0.000	0.002
836.00	0.000	-0.000	0.000	0.002
837.00	0.000	-0.000	0.000	0.002
838.00	0.000	0.000	0.000	0.002
839.00	0.000	0.000	0.000	0.002
840.00	0.000	-0.000	0.000	0.002
841.00	0.000	-0.000	0.000	0.002
842.00	0.000	-0.000	0.000	0.001
843.00	0.000	-0.000	0.000	0.001
844.00	0.000	-0.000	0.000	0.002
845.00	0.000	-0.000	0.000	0.002
846.00	0.000	0.000	0.000	0.002
847.00	0.000	0.000	0.000	0.002
848.00	0.000	0.000	0.000	0.002
849.00	0.000	0.000	0.000	0.002
850.00	0.000	-0.000	0.000	0.002
